% Date and time: 2019-03-14 14:29
% Measurement type: Single spectrum
% Initial holding time: 0 seconds
% Integration type: MED
% Integration time: 16
%    Bias [V]	  Freq1 [Hz]	    Cap1 [F]	Cond1 [S/Hz]	
        0.00	     1000000	   1.320E-09	   1.586E-10	
       -0.05	     1000000	   1.269E-09	   1.470E-10	
       -0.10	     1000000	   1.223E-09	   1.372E-10	
       -0.15	     1000000	   1.180E-09	   1.285E-10	
       -0.20	     1000000	   1.142E-09	   1.208E-10	
       -0.25	     1000000	   1.106E-09	   1.139E-10	
       -0.30	     1000000	   1.073E-09	   1.077E-10	
       -0.35	     1000000	   1.043E-09	   1.021E-10	
       -0.40	     1000000	   1.015E-09	   9.700E-11	
       -0.45	     1000000	   9.897E-10	   9.239E-11	
       -0.50	     1000000	   9.657E-10	   8.816E-11	
       -0.55	     1000000	   9.436E-10	   8.438E-11	
       -0.60	     1000000	   9.229E-10	   8.091E-11	
       -0.65	     1000000	   9.036E-10	   7.770E-11	
       -0.70	     1000000	   8.856E-10	   7.482E-11	
       -0.75	     1000000	   8.687E-10	   7.213E-11	
       -0.80	     1000000	   8.528E-10	   6.968E-11	
       -0.85	     1000000	   8.380E-10	   6.743E-11	
       -0.90	     1000000	   8.239E-10	   6.533E-11	
       -0.95	     1000000	   8.106E-10	   6.337E-11	
       -1.00	     1000000	   7.981E-10	   6.156E-11	
       -1.05	     1000000	   7.861E-10	   5.983E-11	
       -1.10	     1000000	   7.748E-10	   5.825E-11	
       -1.15	     1000000	   7.640E-10	   5.676E-11	
       -1.20	     1000000	   7.537E-10	   5.536E-11	
       -1.25	     1000000	   7.440E-10	   5.409E-11	
       -1.30	     1000000	   7.346E-10	   5.283E-11	
       -1.35	     1000000	   7.255E-10	   5.164E-11	
       -1.40	     1000000	   7.169E-10	   5.051E-11	
       -1.45	     1000000	   7.086E-10	   4.943E-11	
       -1.50	     1000000	   7.005E-10	   4.839E-11	
       -1.55	     1000000	   6.929E-10	   4.744E-11	
       -1.60	     1000000	   6.855E-10	   4.653E-11	
       -1.65	     1000000	   6.784E-10	   4.565E-11	
       -1.70	     1000000	   6.716E-10	   4.481E-11	
       -1.75	     1000000	   6.648E-10	   4.398E-11	
       -1.80	     1000000	   6.585E-10	   4.322E-11	
       -1.85	     1000000	   6.522E-10	   4.243E-11	
       -1.90	     1000000	   6.462E-10	   4.174E-11	
       -1.95	     1000000	   6.404E-10	   4.106E-11	
       -2.00	     1000000	   6.348E-10	   4.037E-11	
       -2.05	     1000000	   6.293E-10	   3.972E-11	
       -2.10	     1000000	   6.238E-10	   3.907E-11	
       -2.15	     1000000	   6.187E-10	   3.848E-11	
       -2.20	     1000000	   6.136E-10	   3.789E-11	
       -2.25	     1000000	   6.086E-10	   3.730E-11	
       -2.30	     1000000	   6.038E-10	   3.674E-11	
       -2.35	     1000000	   5.992E-10	   3.621E-11	
       -2.40	     1000000	   5.946E-10	   3.569E-11	
       -2.45	     1000000	   5.901E-10	   3.516E-11	
       -2.50	     1000000	   5.858E-10	   3.467E-11	
       -2.55	     1000000	   5.816E-10	   3.420E-11	
       -2.60	     1000000	   5.774E-10	   3.371E-11	
       -2.65	     1000000	   5.734E-10	   3.323E-11	
       -2.70	     1000000	   5.696E-10	   3.284E-11	
       -2.75	     1000000	   5.658E-10	   3.244E-11	
       -2.80	     1000000	   5.621E-10	   3.202E-11	
       -2.85	     1000000	   5.585E-10	   3.162E-11	
       -2.90	     1000000	   5.550E-10	   3.127E-11	
       -2.95	     1000000	   5.515E-10	   3.088E-11	
       -3.00	     1000000	   5.480E-10	   3.052E-11	
       -3.05	     1000000	   5.447E-10	   3.018E-11	
       -3.10	     1000000	   5.415E-10	   2.984E-11	
       -3.15	     1000000	   5.383E-10	   2.949E-11	
       -3.20	     1000000	   5.351E-10	   2.915E-11	
       -3.25	     1000000	   5.321E-10	   2.883E-11	
       -3.30	     1000000	   5.294E-10	   2.864E-11	
       -3.35	     1000000	   5.265E-10	   2.833E-11	
       -3.40	     1000000	   5.236E-10	   2.802E-11	
       -3.45	     1000000	   5.209E-10	   2.778E-11	
       -3.50	     1000000	   5.182E-10	   2.750E-11	
       -3.55	     1000000	   5.155E-10	   2.724E-11	
       -3.60	     1000000	   5.128E-10	   2.695E-11	
       -3.65	     1000000	   5.103E-10	   2.672E-11	
       -3.70	     1000000	   5.077E-10	   2.648E-11	
       -3.75	     1000000	   5.053E-10	   2.624E-11	
       -3.80	     1000000	   5.028E-10	   2.601E-11	
       -3.85	     1000000	   5.005E-10	   2.579E-11	
       -3.90	     1000000	   4.981E-10	   2.557E-11	
       -3.95	     1000000	   4.958E-10	   2.534E-11	
       -4.00	     1000000	   4.936E-10	   2.512E-11	
       -4.05	     1000000	   4.913E-10	   2.490E-11	
       -4.10	     1000000	   4.891E-10	   2.469E-11	
       -4.15	     1000000	   4.870E-10	   2.451E-11	
       -4.20	     1000000	   4.850E-10	   2.434E-11	
       -4.25	     1000000	   4.827E-10	   2.411E-11	
       -4.30	     1000000	   4.806E-10	   2.388E-11	
       -4.35	     1000000	   4.786E-10	   2.369E-11	
       -4.40	     1000000	   4.767E-10	   2.353E-11	
       -4.45	     1000000	   4.748E-10	   2.336E-11	
       -4.50	     1000000	   4.728E-10	   2.319E-11	
       -4.55	     1000000	   4.708E-10	   2.298E-11	
       -4.60	     1000000	   4.690E-10	   2.283E-11	
       -4.65	     1000000	   4.672E-10	   2.268E-11	
       -4.70	     1000000	   4.653E-10	   2.251E-11	
       -4.75	     1000000	   4.637E-10	   2.241E-11	
       -4.80	     1000000	   4.617E-10	   2.218E-11	
       -4.85	     1000000	   4.601E-10	   2.204E-11	
       -4.90	     1000000	   4.583E-10	   2.187E-11	
       -4.95	     1000000	   4.566E-10	   2.173E-11	
       -5.00	     1000000	   4.550E-10	   2.159E-11	
       -5.05	     1000000	   4.533E-10	   2.145E-11	
       -5.10	     1000000	   4.518E-10	   2.133E-11	
       -5.15	     1000000	   4.502E-10	   2.115E-11	
       -5.20	     1000000	   4.486E-10	   2.100E-11	
       -5.25	     1000000	   4.471E-10	   2.089E-11	
       -5.30	     1000000	   4.456E-10	   2.077E-11	
       -5.35	     1000000	   4.440E-10	   2.064E-11	
       -5.40	     1000000	   4.425E-10	   2.048E-11	
       -5.45	     1000000	   4.410E-10	   2.037E-11	
       -5.50	     1000000	   4.396E-10	   2.026E-11	
       -5.55	     1000000	   4.381E-10	   2.013E-11	
       -5.60	     1000000	   4.368E-10	   2.004E-11	
       -5.65	     1000000	   4.354E-10	   1.991E-11	
       -5.70	     1000000	   4.341E-10	   1.981E-11	
       -5.75	     1000000	   4.328E-10	   1.971E-11	
       -5.80	     1000000	   4.314E-10	   1.959E-11	
       -5.85	     1000000	   4.300E-10	   1.946E-11	
       -5.90	     1000000	   4.287E-10	   1.937E-11	
       -5.95	     1000000	   4.275E-10	   1.933E-11	
       -6.00	     1000000	   4.262E-10	   1.920E-11	
       -6.05	     1000000	   4.249E-10	   1.907E-11	
       -6.10	     1000000	   4.236E-10	   1.898E-11	
       -6.15	     1000000	   4.224E-10	   1.888E-11	
       -6.20	     1000000	   4.211E-10	   1.875E-11	
       -6.25	     1000000	   4.199E-10	   1.867E-11	
       -6.30	     1000000	   4.187E-10	   1.859E-11	
       -6.35	     1000000	   4.176E-10	   1.855E-11	
       -6.40	     1000000	   4.164E-10	   1.843E-11	
       -6.45	     1000000	   4.152E-10	   1.836E-11	
       -6.50	     1000000	   4.141E-10	   1.823E-11	
       -6.55	     1000000	   4.130E-10	   1.816E-11	
       -6.60	     1000000	   4.119E-10	   1.808E-11	
       -6.65	     1000000	   4.108E-10	   1.793E-11	
       -6.70	     1000000	   4.096E-10	   1.783E-11	
       -6.75	     1000000	   4.086E-10	   1.778E-11	
       -6.80	     1000000	   4.076E-10	   1.781E-11	
       -6.85	     1000000	   4.066E-10	   1.771E-11	
       -6.90	     1000000	   4.055E-10	   1.760E-11	
       -6.95	     1000000	   4.045E-10	   1.754E-11	
       -7.00	     1000000	   4.035E-10	   1.745E-11	
       -7.05	     1000000	   4.024E-10	   1.736E-11	
       -7.10	     1000000	   4.014E-10	   1.725E-11	
       -7.15	     1000000	   4.004E-10	   1.719E-11	
       -7.20	     1000000	   3.995E-10	   1.723E-11	
       -7.25	     1000000	   3.985E-10	   1.734E-11	
       -7.30	     1000000	   3.974E-10	   1.708E-11	
       -7.35	     1000000	   3.964E-10	   1.706E-11	
       -7.40	     1000000	   3.954E-10	   1.691E-11	
       -7.45	     1000000	   3.945E-10	   1.675E-11	
       -7.50	     1000000	   3.936E-10	   1.681E-11	
       -7.55	     1000000	   3.928E-10	   1.698E-11	
       -7.60	     1000000	   3.919E-10	   1.687E-11	
       -7.65	     1000000	   3.910E-10	   1.689E-11	
       -7.70	     1000000	   3.901E-10	   1.698E-11	
       -7.75	     1000000	   3.892E-10	   1.696E-11	
       -7.80	     1000000	   3.883E-10	   1.684E-11	
       -7.85	     1000000	   3.875E-10	   1.680E-11	
       -7.90	     1000000	   3.866E-10	   1.667E-11	
       -7.95	     1000000	   3.858E-10	   1.672E-11	
       -8.00	     1000000	   3.851E-10	   1.686E-11	
       -8.05	     1000000	   3.842E-10	   1.678E-11	
       -8.10	     1000000	   3.833E-10	   1.683E-11	
       -8.15	     1000000	   3.824E-10	   1.683E-11	
       -8.20	     1000000	   3.816E-10	   1.663E-11	
       -8.25	     1000000	   3.808E-10	   1.660E-11	
       -8.30	     1000000	   3.801E-10	   1.660E-11	
       -8.35	     1000000	   3.794E-10	   1.673E-11	
       -8.40	     1000000	   3.786E-10	   1.679E-11	
       -8.45	     1000000	   3.779E-10	   1.675E-11	
       -8.50	     1000000	   3.771E-10	   1.686E-11	
       -8.55	     1000000	   3.762E-10	   1.679E-11	
       -8.60	     1000000	   3.754E-10	   1.675E-11	
       -8.65	     1000000	   3.747E-10	   1.678E-11	
       -8.70	     1000000	   3.739E-10	   1.683E-11	
       -8.75	     1000000	   3.733E-10	   1.698E-11	
       -8.80	     1000000	   3.726E-10	   1.707E-11	
       -8.85	     1000000	   3.719E-10	   1.704E-11	
       -8.90	     1000000	   3.713E-10	   1.718E-11	
       -8.95	     1000000	   3.706E-10	   1.733E-11	
       -9.00	     1000000	   3.701E-10	   1.769E-11	
       -9.05	     1000000	   3.695E-10	   1.792E-11	
       -9.10	     1000000	   3.690E-10	   1.824E-11	
       -9.15	     1000000	   3.682E-10	   1.814E-11	
       -9.20	     1000000	   3.676E-10	   1.830E-11	
       -9.25	     1000000	   3.670E-10	   1.829E-11	
       -9.30	     1000000	   3.663E-10	   1.839E-11	
       -9.35	     1000000	   3.656E-10	   1.866E-11	
       -9.40	     1000000	   3.649E-10	   1.849E-11	
       -9.45	     1000000	   3.642E-10	   1.847E-11	
       -9.50	     1000000	   3.635E-10	   1.862E-11	
       -9.55	     1000000	   3.629E-10	   1.883E-11	
       -9.60	     1000000	   3.622E-10	   1.883E-11	
       -9.65	     1000000	   3.616E-10	   1.871E-11	
       -9.70	     1000000	   3.611E-10	   1.924E-11	
       -9.75	     1000000	   3.605E-10	   1.919E-11	
       -9.80	     1000000	   3.600E-10	   1.955E-11	
       -9.85	     1000000	   3.594E-10	   1.962E-11	
       -9.90	     1000000	   3.588E-10	   1.952E-11	
       -9.95	     1000000	   3.580E-10	   1.936E-11	
      -10.00	     1000000	   3.573E-10	   1.942E-11	
